#FORMAT	     : EMSA/MAS Spectral Data File
#VERSION     : 1.0
#TITLE       : CuO(0-1930eV)
#DATE        : 
#TIME        : 
#OWNER       : 
#NPOINTS     : 1024
#NCOLUMNS    : 1
#XUNITS      : eV
#YUNITS      : 
#DATATYPE    : XY
#XPERCHAN    : 2.000000e+000
#OFFSET      : -1.140000e+002
#SPECTRUM    : Spectral Data Starts Here
-1.140000e+002, -1.000000e+000
-1.120000e+002, -1.000000e+000
-1.100000e+002, -1.000000e+000
-1.080000e+002, -1.000000e+000
-1.060000e+002, -1.000000e+000
-1.040000e+002, 3.055760e+000
-1.020000e+002, 3.136720e+000
-1.000000e+002, 2.665580e+000
-9.800000e+001, -1.000000e+000
-9.600000e+001, -1.000000e+000
-9.400000e+001, -1.000000e+000
-9.200000e+001, 5.000000e+000
-9.000000e+001, 1.900000e+001
-8.800000e+001, 5.200000e+001
-8.600000e+001, 2.010000e+002
-8.400000e+001, 4.390000e+002
-8.200000e+001, 5.310000e+002
-8.000000e+001, 5.680000e+002
-7.800000e+001, 5.910000e+002
-7.600000e+001, 5.990000e+002
-7.400000e+001, 6.110000e+002
-7.200000e+001, 6.100000e+002
-7.000000e+001, 6.100000e+002
-6.800000e+001, 6.080000e+002
-6.600000e+001, 6.110000e+002
-6.400000e+001, 6.090000e+002
-6.200000e+001, 6.120000e+002
-6.000000e+001, 6.070000e+002
-5.800000e+001, 6.120000e+002
-5.600000e+001, 6.070000e+002
-5.400000e+001, 6.100000e+002
-5.200000e+001, 6.090000e+002
-5.000000e+001, 6.070000e+002
-4.800000e+001, 6.120000e+002
-4.600000e+001, 6.090000e+002
-4.400000e+001, 6.080000e+002
-4.200000e+001, 6.110000e+002
-4.000000e+001, 6.080000e+002
-3.800000e+001, 6.090000e+002
-3.600000e+001, 6.100000e+002
-3.400000e+001, 6.090000e+002
-3.200000e+001, 6.100000e+002
-3.000000e+001, 6.110000e+002
-2.800000e+001, 6.120000e+002
-2.600000e+001, 6.100000e+002
-2.400000e+001, 6.130000e+002
-2.200000e+001, 6.130000e+002
-2.000000e+001, 6.150000e+002
-1.800000e+001, 6.160000e+002
-1.600000e+001, 6.170000e+002
-1.400000e+001, 6.210000e+002
-1.200000e+001, 6.250000e+002
-1.000000e+001, 6.350000e+002
-8.000000e+000, 6.730000e+002
-6.000000e+000, 7.770000e+002
-4.000000e+000, 1.733000e+003
-2.000000e+000, 3.910500e+004
0.000000e+000, 7.390600e+005
2.000000e+000, 2.870780e+005
4.000000e+000, 2.080100e+004
6.000000e+000, 1.632800e+004
8.000000e+000, 1.689700e+004
1.000000e+001, 1.797700e+004
1.200000e+001, 1.954600e+004
1.400000e+001, 2.132500e+004
1.600000e+001, 2.266600e+004
1.800000e+001, 2.344700e+004
2.000000e+001, 2.451600e+004
2.200000e+001, 2.513000e+004
2.400000e+001, 2.424900e+004
2.600000e+001, 2.280600e+004
2.800000e+001, 2.136500e+004
3.000000e+001, 2.005800e+004
3.200000e+001, 1.911900e+004
3.400000e+001, 1.848000e+004
3.600000e+001, 1.766800e+004
3.800000e+001, 1.672100e+004
4.000000e+001, 1.576300e+004
4.200000e+001, 1.479600e+004
4.400000e+001, 1.397200e+004
4.600000e+001, 1.328900e+004
4.800000e+001, 1.269600e+004
5.000000e+001, 1.219400e+004
5.200000e+001, 1.171400e+004
5.400000e+001, 1.124700e+004
5.600000e+001, 1.075500e+004
5.800000e+001, 1.027600e+004
6.000000e+001, 9.827000e+003
6.200000e+001, 9.381000e+003
6.400000e+001, 8.972000e+003
6.600000e+001, 8.605000e+003
6.800000e+001, 8.263000e+003
7.000000e+001, 7.937000e+003
7.200000e+001, 7.633000e+003
7.400000e+001, 7.487000e+003
7.600000e+001, 7.428000e+003
7.800000e+001, 7.319000e+003
8.000000e+001, 7.164000e+003
8.200000e+001, 6.961000e+003
8.400000e+001, 6.745000e+003
8.600000e+001, 6.524000e+003
8.800000e+001, 6.297000e+003
9.000000e+001, 6.098000e+003
9.200000e+001, 5.897000e+003
9.400000e+001, 5.722000e+003
9.600000e+001, 5.551000e+003
9.800000e+001, 5.385000e+003
1.000000e+002, 5.242000e+003
1.020000e+002, 5.105000e+003
1.040000e+002, 4.970000e+003
1.060000e+002, 4.848000e+003
1.080000e+002, 4.728000e+003
1.100000e+002, 4.607000e+003
1.120000e+002, 4.495000e+003
1.140000e+002, 4.388000e+003
1.160000e+002, 4.286000e+003
1.180000e+002, 4.188000e+003
1.200000e+002, 4.095000e+003
1.220000e+002, 4.012000e+003
1.240000e+002, 3.931000e+003
1.260000e+002, 3.845000e+003
1.280000e+002, 3.760000e+003
1.300000e+002, 3.687000e+003
1.320000e+002, 3.606000e+003
1.340000e+002, 3.532000e+003
1.360000e+002, 3.459000e+003
1.380000e+002, 3.381000e+003
1.400000e+002, 3.307000e+003
1.420000e+002, 3.234000e+003
1.440000e+002, 3.158000e+003
1.460000e+002, 3.096000e+003
1.480000e+002, 3.029000e+003
1.500000e+002, 2.974000e+003
1.520000e+002, 2.913000e+003
1.540000e+002, 2.855000e+003
1.560000e+002, 2.798000e+003
1.580000e+002, 2.750000e+003
1.600000e+002, 2.696000e+003
1.620000e+002, 2.649000e+003
1.640000e+002, 2.599000e+003
1.660000e+002, 2.549000e+003
1.680000e+002, 2.506000e+003
1.700000e+002, 2.463000e+003
1.720000e+002, 2.422000e+003
1.740000e+002, 2.380000e+003
1.760000e+002, 2.345000e+003
1.780000e+002, 2.304000e+003
1.800000e+002, 2.265000e+003
1.820000e+002, 2.232000e+003
1.840000e+002, 2.197000e+003
1.860000e+002, 2.161000e+003
1.880000e+002, 2.130000e+003
1.900000e+002, 2.095000e+003
1.920000e+002, 2.066000e+003
1.940000e+002, 2.029000e+003
1.960000e+002, 2.002000e+003
1.980000e+002, 1.968000e+003
2.000000e+002, 1.939000e+003
2.020000e+002, 1.913000e+003
2.040000e+002, 1.881000e+003
2.060000e+002, 1.856000e+003
2.080000e+002, 1.828000e+003
2.100000e+002, 1.804000e+003
2.120000e+002, 1.777000e+003
2.140000e+002, 1.758000e+003
2.160000e+002, 5.126000e+003
2.180000e+002, 1.541900e+004
2.200000e+002, 3.242900e+004
2.220000e+002, 1.128000e+005
2.240000e+002, 2.468440e+005
2.260000e+002, 2.956990e+005
2.280000e+002, 3.153670e+005
2.300000e+002, 3.193470e+005
2.320000e+002, 3.204070e+005
2.340000e+002, 3.183770e+005
2.360000e+002, 3.121570e+005
2.380000e+002, 3.064140e+005
2.400000e+002, 3.007590e+005
2.420000e+002, 2.947550e+005
2.440000e+002, 2.907120e+005
2.460000e+002, 2.848980e+005
2.480000e+002, 2.790200e+005
2.500000e+002, 2.740450e+005
2.520000e+002, 2.690200e+005
2.540000e+002, 2.641150e+005
2.560000e+002, 2.601290e+005
2.580000e+002, 2.546580e+005
2.600000e+002, 2.505860e+005
2.620000e+002, 2.456930e+005
2.640000e+002, 2.416750e+005
2.660000e+002, 2.366900e+005
2.680000e+002, 2.328780e+005
2.700000e+002, 2.293590e+005
2.720000e+002, 2.248420e+005
2.740000e+002, 2.212400e+005
2.760000e+002, 2.177270e+005
2.780000e+002, 2.134450e+005
2.800000e+002, 2.102840e+005
2.820000e+002, 2.077390e+005
2.840000e+002, 2.073550e+005
2.860000e+002, 2.043990e+005
2.880000e+002, 2.011970e+005
2.900000e+002, 2.006520e+005
2.920000e+002, 1.979210e+005
2.940000e+002, 1.957400e+005
2.960000e+002, 1.930220e+005
2.980000e+002, 1.898700e+005
3.000000e+002, 1.865820e+005
3.020000e+002, 1.833000e+005
3.040000e+002, 1.795380e+005
3.060000e+002, 1.761020e+005
3.080000e+002, 1.729250e+005
3.100000e+002, 1.698950e+005
3.120000e+002, 1.670990e+005
3.140000e+002, 1.645950e+005
3.160000e+002, 1.616990e+005
3.180000e+002, 1.597280e+005
3.200000e+002, 1.568660e+005
3.220000e+002, 1.547260e+005
3.240000e+002, 1.522800e+005
3.260000e+002, 1.498520e+005
3.280000e+002, 1.477700e+005
3.300000e+002, 1.454680e+005
3.320000e+002, 1.429980e+005
3.340000e+002, 1.410990e+005
3.360000e+002, 1.388030e+005
3.380000e+002, 1.365180e+005
3.400000e+002, 1.348770e+005
3.420000e+002, 1.326470e+005
3.440000e+002, 1.306820e+005
3.460000e+002, 1.286600e+005
3.480000e+002, 1.268150e+005
3.500000e+002, 1.253840e+005
3.520000e+002, 1.235090e+005
3.540000e+002, 1.213190e+005
3.560000e+002, 1.198870e+005
3.580000e+002, 1.178840e+005
3.600000e+002, 1.166800e+005
3.620000e+002, 1.144490e+005
3.640000e+002, 1.131340e+005
3.660000e+002, 1.113420e+005
3.680000e+002, 1.102700e+005
3.700000e+002, 1.081880e+005
3.720000e+002, 1.073090e+005
3.740000e+002, 1.052900e+005
3.760000e+002, 1.039390e+005
3.780000e+002, 1.020740e+005
3.800000e+002, 1.011880e+005
3.820000e+002, 9.932910e+004
3.840000e+002, 9.814810e+004
3.860000e+002, 9.667010e+004
3.880000e+002, 9.578800e+004
3.900000e+002, 9.443300e+004
3.920000e+002, 9.304610e+004
3.940000e+002, 9.198110e+004
3.960000e+002, 9.064400e+004
3.980000e+002, 8.961800e+004
4.000000e+002, 8.787100e+004
4.020000e+002, 8.710600e+004
4.040000e+002, 8.579200e+004
4.060000e+002, 8.475710e+004
4.080000e+002, 8.351400e+004
4.100000e+002, 8.255300e+004
4.120000e+002, 8.157500e+004
4.140000e+002, 8.067300e+004
4.160000e+002, 7.920700e+004
4.180000e+002, 7.818600e+004
4.200000e+002, 7.744400e+004
4.220000e+002, 7.608600e+004
4.240000e+002, 7.540300e+004
4.260000e+002, 7.448900e+004
4.280000e+002, 7.341100e+004
4.300000e+002, 7.244000e+004
4.320000e+002, 7.144600e+004
4.340000e+002, 7.074300e+004
4.360000e+002, 6.979000e+004
4.380000e+002, 6.900600e+004
4.400000e+002, 6.791900e+004
4.420000e+002, 6.714200e+004
4.440000e+002, 6.628600e+004
4.460000e+002, 6.555810e+004
4.480000e+002, 6.484700e+004
4.500000e+002, 6.413200e+004
4.520000e+002, 6.343400e+004
4.540000e+002, 6.247700e+004
4.560000e+002, 6.171800e+004
4.580000e+002, 6.113300e+004
4.600000e+002, 6.027100e+004
4.620000e+002, 5.954400e+004
4.640000e+002, 5.904600e+004
4.660000e+002, 5.806700e+004
4.680000e+002, 5.750700e+004
4.700000e+002, 5.670900e+004
4.720000e+002, 5.631300e+004
4.740000e+002, 5.568200e+004
4.760000e+002, 5.489800e+004
4.780000e+002, 5.452000e+004
4.800000e+002, 5.355200e+004
4.820000e+002, 5.297200e+004
4.840000e+002, 5.245800e+004
4.860000e+002, 5.198710e+004
4.880000e+002, 5.124100e+004
4.900000e+002, 5.058900e+004
4.920000e+002, 5.014000e+004
4.940000e+002, 4.959100e+004
4.960000e+002, 4.903300e+004
4.980000e+002, 4.844700e+004
5.000000e+002, 4.811700e+004
5.020000e+002, 4.741400e+004
5.040000e+002, 4.694200e+004
5.060000e+002, 4.613300e+004
5.080000e+002, 4.600500e+004
5.100000e+002, 4.548600e+004
5.120000e+002, 4.477600e+004
5.140000e+002, 4.424900e+004
5.160000e+002, 4.403000e+004
5.180000e+002, 4.338100e+004
5.200000e+002, 4.278500e+004
5.220000e+002, 4.217500e+004
5.240000e+002, 4.215900e+004
5.260000e+002, 4.192800e+004
5.280000e+002, 4.344700e+004
5.300000e+002, 4.694700e+004
5.320000e+002, 4.677200e+004
5.340000e+002, 4.454000e+004
5.360000e+002, 4.425900e+004
5.380000e+002, 4.406500e+004
5.400000e+002, 4.417100e+004
5.420000e+002, 4.424300e+004
5.440000e+002, 4.320400e+004
5.460000e+002, 4.253100e+004
5.480000e+002, 4.179800e+004
5.500000e+002, 4.126600e+004
5.520000e+002, 4.107300e+004
5.540000e+002, 4.058600e+004
5.560000e+002, 4.040300e+004
5.580000e+002, 4.015500e+004
5.600000e+002, 4.010900e+004
5.620000e+002, 3.954600e+004
5.640000e+002, 3.946900e+004
5.660000e+002, 3.898000e+004
5.680000e+002, 3.842500e+004
5.700000e+002, 3.832500e+004
5.720000e+002, 3.787800e+004
5.740000e+002, 3.764400e+004
5.760000e+002, 3.709400e+004
5.780000e+002, 3.687200e+004
5.800000e+002, 3.638700e+004
5.820000e+002, 3.590300e+004
5.840000e+002, 3.556400e+004
5.860000e+002, 3.533000e+004
5.880000e+002, 3.497000e+004
5.900000e+002, 3.470000e+004
5.920000e+002, 3.441300e+004
5.940000e+002, 3.391800e+004
5.960000e+002, 3.384600e+004
5.980000e+002, 3.336900e+004
6.000000e+002, 3.308500e+004
6.020000e+002, 3.285400e+004
6.040000e+002, 3.273900e+004
6.060000e+002, 3.221400e+004
6.080000e+002, 3.210600e+004
6.100000e+002, 3.187300e+004
6.120000e+002, 3.128000e+004
6.140000e+002, 3.131800e+004
6.160000e+002, 3.089300e+004
6.180000e+002, 3.060600e+004
6.200000e+002, 3.060100e+004
6.220000e+002, 3.003400e+004
6.240000e+002, 2.967000e+004
6.260000e+002, 2.969400e+004
6.280000e+002, 2.933000e+004
6.300000e+002, 2.909600e+004
6.320000e+002, 2.887600e+004
6.340000e+002, 2.848400e+004
6.360000e+002, 2.833300e+004
6.380000e+002, 2.834800e+004
6.400000e+002, 2.785300e+004
6.420000e+002, 2.759700e+004
6.440000e+002, 2.742000e+004
6.460000e+002, 2.703000e+004
6.480000e+002, 2.681200e+004
6.500000e+002, 2.668800e+004
6.520000e+002, 2.622200e+004
6.540000e+002, 2.593100e+004
6.560000e+002, 2.579600e+004
6.580000e+002, 2.553100e+004
6.600000e+002, 2.547100e+004
6.620000e+002, 2.504600e+004
6.640000e+002, 2.480700e+004
6.660000e+002, 2.464300e+004
6.680000e+002, 2.447400e+004
6.700000e+002, 2.417000e+004
6.720000e+002, 2.391000e+004
6.740000e+002, 2.400200e+004
6.760000e+002, 2.362100e+004
6.780000e+002, 2.356700e+004
6.800000e+002, 2.316000e+004
6.820000e+002, 2.305000e+004
6.840000e+002, 2.309900e+004
6.860000e+002, 2.272000e+004
6.880000e+002, 2.247500e+004
6.900000e+002, 2.253700e+004
6.920000e+002, 2.204200e+004
6.940000e+002, 2.192800e+004
6.960000e+002, 2.169700e+004
6.980000e+002, 2.166500e+004
7.000000e+002, 2.129000e+004
7.020000e+002, 2.126300e+004
7.040000e+002, 2.109200e+004
7.060000e+002, 2.102800e+004
7.080000e+002, 2.088300e+004
7.100000e+002, 2.068900e+004
7.120000e+002, 2.049400e+004
7.140000e+002, 2.028900e+004
7.160000e+002, 2.006400e+004
7.180000e+002, 1.998500e+004
7.200000e+002, 1.979700e+004
7.220000e+002, 1.967300e+004
7.240000e+002, 1.946100e+004
7.260000e+002, 1.943200e+004
7.280000e+002, 1.922800e+004
7.300000e+002, 1.907800e+004
7.320000e+002, 1.886500e+004
7.340000e+002, 1.875100e+004
7.360000e+002, 1.851100e+004
7.380000e+002, 1.839800e+004
7.400000e+002, 1.812900e+004
7.420000e+002, 1.820800e+004
7.440000e+002, 1.797000e+004
7.460000e+002, 1.779700e+004
7.480000e+002, 1.768000e+004
7.500000e+002, 1.749100e+004
7.520000e+002, 1.725400e+004
7.540000e+002, 1.720100e+004
7.560000e+002, 1.705400e+004
7.580000e+002, 1.681200e+004
7.600000e+002, 1.680700e+004
7.620000e+002, 1.672500e+004
7.640000e+002, 1.648300e+004
7.660000e+002, 1.634400e+004
7.680000e+002, 1.621000e+004
7.700000e+002, 1.610800e+004
7.720000e+002, 1.603400e+004
7.740000e+002, 1.579700e+004
7.760000e+002, 1.581200e+004
7.780000e+002, 1.561500e+004
7.800000e+002, 1.553700e+004
7.820000e+002, 1.557200e+004
7.840000e+002, 1.533800e+004
7.860000e+002, 1.505200e+004
7.880000e+002, 1.508700e+004
7.900000e+002, 1.489700e+004
7.920000e+002, 1.474700e+004
7.940000e+002, 1.463700e+004
7.960000e+002, 1.459000e+004
7.980000e+002, 1.454200e+004
8.000000e+002, 1.441400e+004
8.020000e+002, 1.429800e+004
8.040000e+002, 1.428500e+004
8.060000e+002, 1.410800e+004
8.080000e+002, 1.399600e+004
8.100000e+002, 1.393600e+004
8.120000e+002, 1.380200e+004
8.140000e+002, 1.365600e+004
8.160000e+002, 1.353500e+004
8.180000e+002, 1.343100e+004
8.200000e+002, 1.337100e+004
8.220000e+002, 1.340600e+004
8.240000e+002, 1.318500e+004
8.260000e+002, 1.307700e+004
8.280000e+002, 1.315600e+004
8.300000e+002, 1.281800e+004
8.320000e+002, 1.274200e+004
8.340000e+002, 1.267700e+004
8.360000e+002, 1.262800e+004
8.380000e+002, 1.255000e+004
8.400000e+002, 1.248600e+004
8.420000e+002, 1.238600e+004
8.440000e+002, 1.232400e+004
8.460000e+002, 1.204200e+004
8.480000e+002, 1.193900e+004
8.500000e+002, 1.207800e+004
8.520000e+002, 1.185300e+004
8.540000e+002, 1.183200e+004
8.560000e+002, 1.164800e+004
8.580000e+002, 1.156800e+004
8.600000e+002, 1.165400e+004
8.620000e+002, 1.143800e+004
8.640000e+002, 1.138700e+004
8.660000e+002, 1.135700e+004
8.680000e+002, 1.127100e+004
8.700000e+002, 1.112800e+004
8.720000e+002, 1.107100e+004
8.740000e+002, 1.106400e+004
8.760000e+002, 1.104800e+004
8.780000e+002, 1.087300e+004
8.800000e+002, 1.072800e+004
8.820000e+002, 1.061300e+004
8.840000e+002, 1.054000e+004
8.860000e+002, 1.058800e+004
8.880000e+002, 1.038900e+004
8.900000e+002, 1.043500e+004
8.920000e+002, 1.039500e+004
8.940000e+002, 1.020100e+004
8.960000e+002, 1.014500e+004
8.980000e+002, 1.000400e+004
9.000000e+002, 9.960000e+003
9.020000e+002, 9.929000e+003
9.040000e+002, 9.908000e+003
9.060000e+002, 9.709010e+003
9.080000e+002, 9.642000e+003
9.100000e+002, 9.574000e+003
9.120000e+002, 9.507000e+003
9.140000e+002, 9.439000e+003
9.160000e+002, 9.372000e+003
9.180000e+002, 9.304000e+003
9.200000e+002, 9.237000e+003
9.220000e+002, 9.169010e+003
9.240000e+002, 9.316000e+003
9.260000e+002, 1.079200e+004
9.280000e+002, 1.262400e+004
9.300000e+002, 1.306500e+004
9.320000e+002, 1.140500e+004
9.340000e+002, 1.107800e+004
9.360000e+002, 1.070900e+004
9.380000e+002, 1.054700e+004
9.400000e+002, 1.080900e+004
9.420000e+002, 1.106400e+004
9.440000e+002, 1.125800e+004
9.460000e+002, 1.193300e+004
9.480000e+002, 1.262400e+004
9.500000e+002, 1.305900e+004
9.520000e+002, 1.273400e+004
9.540000e+002, 1.264100e+004
9.560000e+002, 1.258700e+004
9.580000e+002, 1.249900e+004
9.600000e+002, 1.257500e+004
9.620000e+002, 1.271400e+004
9.640000e+002, 1.294100e+004
9.660000e+002, 1.303500e+004
9.680000e+002, 1.328200e+004
9.700000e+002, 1.341400e+004
9.720000e+002, 1.337400e+004
9.740000e+002, 1.342000e+004
9.760000e+002, 1.354100e+004
9.780000e+002, 1.339300e+004
9.800000e+002, 1.330800e+004
9.820000e+002, 1.333600e+004
9.840000e+002, 1.333300e+004
9.860000e+002, 1.337500e+004
9.880000e+002, 1.326200e+004
9.900000e+002, 1.332500e+004
9.920000e+002, 1.345000e+004
9.940000e+002, 1.332600e+004
9.960000e+002, 1.315300e+004
9.980000e+002, 1.321000e+004
1.000000e+003, 1.315000e+004
1.002000e+003, 1.322100e+004
1.004000e+003, 1.297200e+004
1.006000e+003, 1.302700e+004
1.008000e+003, 1.286600e+004
1.010000e+003, 1.304200e+004
1.012000e+003, 1.285100e+004
1.014000e+003, 1.302400e+004
1.016000e+003, 1.289800e+004
1.018000e+003, 1.284100e+004
1.020000e+003, 1.278100e+004
1.022000e+003, 1.286600e+004
1.024000e+003, 1.281000e+004
1.026000e+003, 1.288100e+004
1.028000e+003, 1.263400e+004
1.030000e+003, 1.255900e+004
1.032000e+003, 1.263200e+004
1.034000e+003, 1.265200e+004
1.036000e+003, 1.255900e+004
1.038000e+003, 1.243900e+004
1.040000e+003, 1.231100e+004
1.042000e+003, 1.234800e+004
1.044000e+003, 1.248600e+004
1.046000e+003, 1.232400e+004
1.048000e+003, 1.226100e+004
1.050000e+003, 1.221700e+004
1.052000e+003, 1.209300e+004
1.054000e+003, 1.205200e+004
1.056000e+003, 1.210000e+004
1.058000e+003, 1.201800e+004
1.060000e+003, 1.205700e+004
1.062000e+003, 1.185800e+004
1.064000e+003, 1.190600e+004
1.066000e+003, 1.184000e+004
1.068000e+003, 1.177400e+004
1.070000e+003, 1.174700e+004
1.072000e+003, 1.152800e+004
1.074000e+003, 1.152000e+004
1.076000e+003, 1.149900e+004
1.078000e+003, 1.156000e+004
1.080000e+003, 1.145800e+004
1.082000e+003, 1.143600e+004
1.084000e+003, 1.130400e+004
1.086000e+003, 1.135500e+004
1.088000e+003, 1.134400e+004
1.090000e+003, 1.138000e+004
1.092000e+003, 1.133800e+004
1.094000e+003, 1.142600e+004
1.096000e+003, 1.139200e+004
1.098000e+003, 1.131400e+004
1.100000e+003, 1.132000e+004
1.102000e+003, 1.132500e+004
1.104000e+003, 1.131000e+004
1.106000e+003, 1.129400e+004
1.108000e+003, 1.137700e+004
1.110000e+003, 1.141100e+004
1.112000e+003, 1.130800e+004
1.114000e+003, 1.124800e+004
1.116000e+003, 1.121800e+004
1.118000e+003, 1.112300e+004
1.120000e+003, 1.114700e+004
1.122000e+003, 1.110000e+004
1.124000e+003, 1.100600e+004
1.126000e+003, 1.098200e+004
1.128000e+003, 1.096300e+004
1.130000e+003, 1.086900e+004
1.132000e+003, 1.083400e+004
1.134000e+003, 1.084000e+004
1.136000e+003, 1.075100e+004
1.138000e+003, 1.077700e+004
1.140000e+003, 1.069700e+004
1.142000e+003, 1.066700e+004
1.144000e+003, 1.052900e+004
1.146000e+003, 1.053700e+004
1.148000e+003, 1.055000e+004
1.150000e+003, 1.044900e+004
1.152000e+003, 1.042100e+004
1.154000e+003, 1.030300e+004
1.156000e+003, 1.028500e+004
1.158000e+003, 1.036800e+004
1.160000e+003, 1.024800e+004
1.162000e+003, 1.016000e+004
1.164000e+003, 1.012000e+004
1.166000e+003, 1.007400e+004
1.168000e+003, 1.007400e+004
1.170000e+003, 1.006000e+004
1.172000e+003, 9.813000e+003
1.174000e+003, 9.765000e+003
1.176000e+003, 9.863000e+003
1.178000e+003, 9.782000e+003
1.180000e+003, 9.805010e+003
1.182000e+003, 9.724000e+003
1.184000e+003, 9.695000e+003
1.186000e+003, 9.638000e+003
1.188000e+003, 9.573010e+003
1.190000e+003, 9.545000e+003
1.192000e+003, 9.527000e+003
1.194000e+003, 9.445010e+003
1.196000e+003, 9.369000e+003
1.198000e+003, 9.377000e+003
1.200000e+003, 9.283000e+003
1.202000e+003, 9.113000e+003
1.204000e+003, 9.097000e+003
1.206000e+003, 9.164000e+003
1.208000e+003, 9.144000e+003
1.210000e+003, 9.139000e+003
1.212000e+003, 8.924000e+003
1.214000e+003, 8.968000e+003
1.216000e+003, 8.937010e+003
1.218000e+003, 8.980010e+003
1.220000e+003, 8.935000e+003
1.222000e+003, 8.827000e+003
1.224000e+003, 8.800000e+003
1.226000e+003, 8.704000e+003
1.228000e+003, 8.579000e+003
1.230000e+003, 8.663000e+003
1.232000e+003, 8.618000e+003
1.234000e+003, 8.596000e+003
1.236000e+003, 8.582000e+003
1.238000e+003, 8.462000e+003
1.240000e+003, 8.493010e+003
1.242000e+003, 8.458000e+003
1.244000e+003, 8.370000e+003
1.246000e+003, 8.391000e+003
1.248000e+003, 8.283000e+003
1.250000e+003, 8.256010e+003
1.252000e+003, 8.250000e+003
1.254000e+003, 8.084010e+003
1.256000e+003, 8.059000e+003
1.258000e+003, 8.154000e+003
1.260000e+003, 8.084010e+003
1.262000e+003, 7.929000e+003
1.264000e+003, 8.034000e+003
1.266000e+003, 7.931010e+003
1.268000e+003, 7.865000e+003
1.270000e+003, 7.904000e+003
1.272000e+003, 7.768010e+003
1.274000e+003, 7.932000e+003
1.276000e+003, 7.841010e+003
1.278000e+003, 7.643000e+003
1.280000e+003, 7.698000e+003
1.282000e+003, 7.670010e+003
1.284000e+003, 7.674000e+003
1.286000e+003, 7.616000e+003
1.288000e+003, 7.585000e+003
1.290000e+003, 7.535000e+003
1.292000e+003, 7.462000e+003
1.294000e+003, 7.541000e+003
1.296000e+003, 7.484000e+003
1.298000e+003, 7.352000e+003
1.300000e+003, 7.299000e+003
1.302000e+003, 7.394000e+003
1.304000e+003, 7.250000e+003
1.306000e+003, 7.209000e+003
1.308000e+003, 7.192000e+003
1.310000e+003, 7.124000e+003
1.312000e+003, 7.230000e+003
1.314000e+003, 7.036000e+003
1.316000e+003, 6.996000e+003
1.318000e+003, 6.937000e+003
1.320000e+003, 6.947000e+003
1.322000e+003, 6.906000e+003
1.324000e+003, 6.903000e+003
1.326000e+003, 6.810000e+003
1.328000e+003, 6.828000e+003
1.330000e+003, 6.860000e+003
1.332000e+003, 6.752000e+003
1.334000e+003, 6.721000e+003
1.336000e+003, 6.691000e+003
1.338000e+003, 6.700000e+003
1.340000e+003, 6.570000e+003
1.342000e+003, 6.583000e+003
1.344000e+003, 6.676000e+003
1.346000e+003, 6.522000e+003
1.348000e+003, 6.617000e+003
1.350000e+003, 6.482000e+003
1.352000e+003, 6.509000e+003
1.354000e+003, 6.406000e+003
1.356000e+003, 6.359000e+003
1.358000e+003, 6.385000e+003
1.360000e+003, 6.334000e+003
1.362000e+003, 6.358000e+003
1.364000e+003, 6.217000e+003
1.366000e+003, 6.232000e+003
1.368000e+003, 6.263000e+003
1.370000e+003, 6.258000e+003
1.372000e+003, 6.200000e+003
1.374000e+003, 6.193000e+003
1.376000e+003, 6.088000e+003
1.378000e+003, 6.129000e+003
1.380000e+003, 6.077000e+003
1.382000e+003, 6.101000e+003
1.384000e+003, 6.068000e+003
1.386000e+003, 5.972000e+003
1.388000e+003, 5.939000e+003
1.390000e+003, 5.960000e+003
1.392000e+003, 5.801000e+003
1.394000e+003, 5.836000e+003
1.396000e+003, 5.777000e+003
1.398000e+003, 5.887000e+003
1.400000e+003, 5.790000e+003
1.402000e+003, 5.763000e+003
1.404000e+003, 5.693000e+003
1.406000e+003, 5.665000e+003
1.408000e+003, 5.675000e+003
1.410000e+003, 5.627000e+003
1.412000e+003, 5.633000e+003
1.414000e+003, 5.542000e+003
1.416000e+003, 5.705000e+003
1.418000e+003, 5.599000e+003
1.420000e+003, 5.491000e+003
1.422000e+003, 5.474000e+003
1.424000e+003, 5.432000e+003
1.426000e+003, 5.495000e+003
1.428000e+003, 5.350000e+003
1.430000e+003, 5.444000e+003
1.432000e+003, 5.418000e+003
1.434000e+003, 5.333000e+003
1.436000e+003, 5.342000e+003
1.438000e+003, 5.333000e+003
1.440000e+003, 5.330000e+003
1.442000e+003, 5.218000e+003
1.444000e+003, 5.239000e+003
1.446000e+003, 5.166000e+003
1.448000e+003, 5.227000e+003
1.450000e+003, 5.203000e+003
1.452000e+003, 5.162000e+003
1.454000e+003, 5.133000e+003
1.456000e+003, 5.048000e+003
1.458000e+003, 5.051000e+003
1.460000e+003, 5.071000e+003
1.462000e+003, 5.110000e+003
1.464000e+003, 4.966000e+003
1.466000e+003, 5.042000e+003
1.468000e+003, 4.974000e+003
1.470000e+003, 4.920000e+003
1.472000e+003, 4.941000e+003
1.474000e+003, 4.958000e+003
1.476000e+003, 4.839000e+003
1.478000e+003, 4.841000e+003
1.480000e+003, 4.779000e+003
1.482000e+003, 4.821000e+003
1.484000e+003, 4.809000e+003
1.486000e+003, 4.732000e+003
1.488000e+003, 4.751000e+003
1.490000e+003, 4.694000e+003
1.492000e+003, 4.602000e+003
1.494000e+003, 4.639000e+003
1.496000e+003, 4.687000e+003
1.498000e+003, 4.669000e+003
1.500000e+003, 4.655000e+003
1.502000e+003, 4.549000e+003
1.504000e+003, 4.585000e+003
1.506000e+003, 4.614000e+003
1.508000e+003, 4.472000e+003
1.510000e+003, 4.454000e+003
1.512000e+003, 4.449000e+003
1.514000e+003, 4.484000e+003
1.516000e+003, 4.554000e+003
1.518000e+003, 4.478000e+003
1.520000e+003, 4.417000e+003
1.522000e+003, 4.361000e+003
1.524000e+003, 4.437000e+003
1.526000e+003, 4.324000e+003
1.528000e+003, 4.279000e+003
1.530000e+003, 4.275000e+003
1.532000e+003, 4.240000e+003
1.534000e+003, 4.207000e+003
1.536000e+003, 4.250000e+003
1.538000e+003, 4.183000e+003
1.540000e+003, 4.222000e+003
1.542000e+003, 4.208000e+003
1.544000e+003, 4.241000e+003
1.546000e+003, 4.192000e+003
1.548000e+003, 4.112000e+003
1.550000e+003, 4.178000e+003
1.552000e+003, 4.149000e+003
1.554000e+003, 4.124000e+003
1.556000e+003, 4.166000e+003
1.558000e+003, 4.116000e+003
1.560000e+003, 4.055000e+003
1.562000e+003, 4.058000e+003
1.564000e+003, 3.995000e+003
1.566000e+003, 4.054000e+003
1.568000e+003, 4.001000e+003
1.570000e+003, 3.937000e+003
1.572000e+003, 3.959000e+003
1.574000e+003, 3.991000e+003
1.576000e+003, 3.943000e+003
1.578000e+003, 3.853000e+003
1.580000e+003, 3.880000e+003
1.582000e+003, 3.886000e+003
1.584000e+003, 3.903000e+003
1.586000e+003, 3.854000e+003
1.588000e+003, 3.822000e+003
1.590000e+003, 3.775000e+003
1.592000e+003, 3.843000e+003
1.594000e+003, 3.778000e+003
1.596000e+003, 3.751000e+003
1.598000e+003, 3.740000e+003
1.600000e+003, 3.664000e+003
1.602000e+003, 3.675000e+003
1.604000e+003, 3.738000e+003
1.606000e+003, 3.718000e+003
1.608000e+003, 3.637000e+003
1.610000e+003, 3.610000e+003
1.612000e+003, 3.685000e+003
1.614000e+003, 3.666000e+003
1.616000e+003, 3.567000e+003
1.618000e+003, 3.652000e+003
1.620000e+003, 3.539000e+003
1.622000e+003, 3.568000e+003
1.624000e+003, 3.503000e+003
1.626000e+003, 3.604000e+003
1.628000e+003, 3.501000e+003
1.630000e+003, 3.469000e+003
1.632000e+003, 3.538000e+003
1.634000e+003, 3.466000e+003
1.636000e+003, 3.467000e+003
1.638000e+003, 3.469000e+003
1.640000e+003, 3.446000e+003
1.642000e+003, 3.426000e+003
1.644000e+003, 3.402000e+003
1.646000e+003, 3.356000e+003
1.648000e+003, 3.409000e+003
1.650000e+003, 3.353000e+003
1.652000e+003, 3.386000e+003
1.654000e+003, 3.406000e+003
1.656000e+003, 3.317000e+003
1.658000e+003, 3.318000e+003
1.660000e+003, 3.243000e+003
1.662000e+003, 3.214000e+003
1.664000e+003, 3.302000e+003
1.666000e+003, 3.319000e+003
1.668000e+003, 3.289000e+003
1.670000e+003, 3.200000e+003
1.672000e+003, 3.204000e+003
1.674000e+003, 3.307000e+003
1.676000e+003, 3.155000e+003
1.678000e+003, 3.140000e+003
1.680000e+003, 3.244000e+003
1.682000e+003, 3.113000e+003
1.684000e+003, 3.156000e+003
1.686000e+003, 3.098000e+003
1.688000e+003, 3.082000e+003
1.690000e+003, 3.133000e+003
1.692000e+003, 3.130000e+003
1.694000e+003, 3.048000e+003
1.696000e+003, 3.106000e+003
1.698000e+003, 3.077000e+003
1.700000e+003, 3.065000e+003
1.702000e+003, 3.103000e+003
1.704000e+003, 3.059000e+003
1.706000e+003, 3.030000e+003
1.708000e+003, 3.021000e+003
1.710000e+003, 2.995000e+003
1.712000e+003, 3.034000e+003
1.714000e+003, 2.959000e+003
1.716000e+003, 2.970000e+003
1.718000e+003, 2.959000e+003
1.720000e+003, 2.952000e+003
1.722000e+003, 2.945000e+003
1.724000e+003, 2.902000e+003
1.726000e+003, 2.919000e+003
1.728000e+003, 2.847000e+003
1.730000e+003, 2.900000e+003
1.732000e+003, 2.829000e+003
1.734000e+003, 2.848000e+003
1.736000e+003, 2.884000e+003
1.738000e+003, 2.881000e+003
1.740000e+003, 2.852000e+003
1.742000e+003, 2.845000e+003
1.744000e+003, 2.798000e+003
1.746000e+003, 2.802000e+003
1.748000e+003, 2.805000e+003
1.750000e+003, 2.759000e+003
1.752000e+003, 2.776000e+003
1.754000e+003, 2.765000e+003
1.756000e+003, 2.748000e+003
1.758000e+003, 2.744000e+003
1.760000e+003, 2.666000e+003
1.762000e+003, 2.705000e+003
1.764000e+003, 2.702000e+003
1.766000e+003, 2.725000e+003
1.768000e+003, 2.675000e+003
1.770000e+003, 2.640000e+003
1.772000e+003, 2.700000e+003
1.774000e+003, 2.609000e+003
1.776000e+003, 2.626000e+003
1.778000e+003, 2.642000e+003
1.780000e+003, 2.637000e+003
1.782000e+003, 2.579000e+003
1.784000e+003, 2.612000e+003
1.786000e+003, 2.610000e+003
1.788000e+003, 2.548000e+003
1.790000e+003, 2.584000e+003
1.792000e+003, 2.606000e+003
1.794000e+003, 2.567000e+003
1.796000e+003, 2.514000e+003
1.798000e+003, 2.564000e+003
1.800000e+003, 2.533000e+003
1.802000e+003, 2.528000e+003
1.804000e+003, 2.528000e+003
1.806000e+003, 2.525000e+003
1.808000e+003, 2.455000e+003
1.810000e+003, 2.455000e+003
1.812000e+003, 2.450000e+003
1.814000e+003, 2.480000e+003
1.816000e+003, 2.485000e+003
1.818000e+003, 2.378000e+003
1.820000e+003, 2.446000e+003
1.822000e+003, 2.409000e+003
1.824000e+003, 2.442000e+003
1.826000e+003, 2.401000e+003
1.828000e+003, 2.429000e+003
1.830000e+003, 2.397000e+003
1.832000e+003, 2.340000e+003
1.834000e+003, 2.400000e+003
1.836000e+003, 2.379000e+003
1.838000e+003, 2.436000e+003
1.840000e+003, 2.365000e+003
1.842000e+003, 2.339000e+003
1.844000e+003, 2.368000e+003
1.846000e+003, 2.271000e+003
1.848000e+003, 2.365000e+003
1.850000e+003, 2.323000e+003
1.852000e+003, 2.303000e+003
1.854000e+003, 2.336000e+003
1.856000e+003, 2.276000e+003
1.858000e+003, 2.322000e+003
1.860000e+003, 2.286000e+003
1.862000e+003, 2.225000e+003
1.864000e+003, 2.221000e+003
1.866000e+003, 2.237000e+003
1.868000e+003, 2.237000e+003
1.870000e+003, 2.248000e+003
1.872000e+003, 2.208000e+003
1.874000e+003, 2.214000e+003
1.876000e+003, 2.209000e+003
1.878000e+003, 2.178000e+003
1.880000e+003, 2.178000e+003
1.882000e+003, 2.178000e+003
1.884000e+003, 2.188000e+003
1.886000e+003, 2.185000e+003
1.888000e+003, 2.173000e+003
1.890000e+003, 2.140000e+003
1.892000e+003, 2.123000e+003
1.894000e+003, 2.107000e+003
1.896000e+003, 2.160000e+003
1.898000e+003, 2.141000e+003
1.900000e+003, 2.062000e+003
1.902000e+003, 2.082000e+003
1.904000e+003, 2.092000e+003
1.906000e+003, 2.097000e+003
1.908000e+003, 2.054000e+003
1.910000e+003, 2.122000e+003
1.912000e+003, 2.091000e+003
1.914000e+003, 2.091000e+003
1.916000e+003, 2.038000e+003
1.918000e+003, 2.036000e+003
1.920000e+003, 2.055000e+003
1.922000e+003, 2.068000e+003
1.924000e+003, 2.038000e+003
1.926000e+003, 2.033000e+003
1.928000e+003, 2.013000e+003
1.930000e+003, 2.013000e+003
1.932000e+003, 2.173190e+000
#ENDOFDATA   : End Of Data and File